 C22H10N2O5 Density=1.43, Angle=90.deg
 Photon Energy (eV), Atten Length (microns)
   500.000  0.625886
   510.341  0.658775
   520.897  0.693389
   531.670  0.729821
   542.667  0.768165
   553.890  0.551121
   565.346  0.579965
   577.039  0.610362
   588.974  0.642281
   601.155  0.675830
   613.589  0.711133
   626.280  0.748302
   639.233  0.787773
   652.454  0.829953
   665.948  0.874642
   679.722  0.920417
   693.781  0.966504
   708.130  1.01581
   722.776  1.07123
   737.725  1.13064
   752.983  1.19334
   768.557  1.25965
   784.453  1.33023
   800.677  1.40547
   817.237  1.48503
   834.140  1.56908
   851.392  1.65752
   869.001  1.75019
   886.975  1.84763
   905.320  1.95047
   924.044  2.05917
   943.156  2.17629
   962.663  2.30075
   982.573  2.43264
   1002.90  2.57200
   1023.64  2.71893
   1044.81  2.87455
   1066.42  3.04116
   1088.48  3.21774
   1110.99  3.40467
   1133.97  3.60242
   1157.42  3.81156
   1181.36  4.03290
   1205.79  4.26705
   1230.73  4.51484
   1256.19  4.77873
   1282.17  5.06045
   1308.69  5.36019
   1335.75  5.67763
   1363.38  6.01391
   1391.58  6.37003
   1420.36  6.74727
   1449.74  7.14688
   1479.72  7.57091
   1510.33  8.02295
   1541.56  8.50413
   1573.45  9.01415
   1605.99  9.55496
   1639.21  10.1282
   1673.11  10.7357
   1707.72  11.3797
   1743.04  12.0649
   1779.09  12.7954
   1815.88  13.5720
   1853.44  14.3958
   1891.77  15.2695
   1930.90  16.1963
   1970.84  17.1792
   2011.60  18.2180
   2053.20  19.3245
   2095.67  20.5044
   2139.01  21.7579
   2183.26  23.0897
   2228.41  24.5048
   2274.50  26.0085
   2321.54  27.6067
   2369.56  29.3053
   2418.57  31.1106
   2468.59  33.0297
   2519.65  35.0698
   2571.76  37.2385
   2624.95  39.5451
   2679.24  41.9972
   2734.66  44.6058
   2791.22  47.3794
   2848.95  50.3290
   2907.87  53.4693
   2968.01  56.8091
   3029.40  60.3623
   3092.06  64.1452
   3156.01  68.1715
   3221.28  72.4566
   3287.91  77.0198
   3355.91  81.8783
   3425.32  87.0510
   3496.16  92.5610
   3568.47  98.4328
   3642.28  104.690
   3717.61  111.357
   3794.50  118.462
   3872.98  126.039
   3953.09  134.115
   4034.85  142.710
   4118.30  151.889
   4203.48  161.669
   4290.42  172.090
   4379.15  183.191
   4469.73  195.021
   4562.17  207.628
   4656.53  221.064
   4752.84  235.382
   4851.14  250.641
   4951.48  266.903
   5053.89  284.236
   5158.42  302.715
   5265.10  322.408
   5374.00  343.404
   5485.15  365.790
   5598.60  389.648
   5714.39  415.071
   5832.58  442.183
   5953.21  471.094
   6076.34  501.905
   6202.02  534.760
   6330.29  569.784
   6461.22  607.125
   6594.86  646.935
   6731.26  689.368
   6870.48  734.589
   7012.58  782.800
   7157.62  834.189
   7305.65  888.951
   7456.76  947.297
   7610.98  1009.49
   7768.40  1075.74
   7929.07  1146.32
   8093.06  1221.51
   8260.45  1301.64
   8431.30  1386.98
   8605.68  1477.84
   8783.67  1574.57
   8965.34  1677.52
   9150.77  1787.05
   9340.03  1903.58
   9533.21  2027.48
   9730.38  2159.22
   9931.63  2299.19
   10137.0  2448.04
   10346.7  2606.17
   10560.7  2774.04
   10779.1  2952.19
   11002.1  3141.11
   11229.6  3341.37
   11461.9  3553.51
   11698.9  3778.09
   11940.9  4015.65
   12187.9  4266.72
   12440.0  4531.97
   12697.2  4811.82
   12959.9  5106.80
   13227.9  5417.52
   13501.5  5744.37
   13780.7  6087.84
   14065.8  6448.26
   14356.7  6825.99
   14653.6  7221.39
   14956.7  7634.48
   15266.0  8067.60
   15581.8  8519.60
   15904.1  8990.09
   16233.0  9478.88
   16568.7  9985.94
   16911.4  10510.9
   17261.2  11053.2
   17618.2  11612.2
   17982.6  12187.4
   18354.5  12777.5
   18734.1  13381.8
   19121.6  13999.0
   19517.1  14627.6
   19920.8  15250.7
   20332.8  15896.6
   20753.3  16575.2
   21182.6  17261.6
   21620.7  17954.4
   22067.8  18652.0
   22524.3  19352.6
   22990.1  20054.5
   23465.6  20755.7
   23951.0  21454.7
   24446.3  22149.6
   24952.0  22838.5
   25468.0  23520.0
   25994.8  24192.3
   26532.4  24853.9
   27081.2  25503.1
   27641.3  26138.9
   28213.0  26759.8
   28796.5  27364.6
   29392.1  27952.6
   30000.0  28522.6
